RA[deg]	DEC[deg]	z_low	layer
187.2397	57.9614	0.02	4
123.0491	57.7265	0.02	4
155.4949	56.8700	0.02	4
203.8066	56.7925	0.02	4
205.9567	56.7925	0.02	4
173.8268	54.6451	0.02	4
174.4129	54.4176	0.02	4
120.9668	53.5118	0.02	4
188.6874	52.8371	0.02	4
121.5233	52.7624	0.02	4
197.4851	52.7624	0.02	4
135.0002	50.1755	0.02	4
164.3426	49.9562	0.02	4
195.4133	48.6481	0.02	4
185.5514	47.8548	0.02	4
130.4599	47.5675	0.02	4
240.1244	47.4958	0.02	4
120.4124	46.6377	0.02	4
186.9508	46.0684	0.02	4
164.8291	45.9974	0.02	4
153.4563	44.9363	0.02	4
163.2051	44.7954	0.02	4
122.3426	44.7250	0.02	4
168.8738	43.8825	0.02	4
182.5571	42.4186	0.02	4
238.7312	42.4186	0.02	4
153.8202	39.8697	0.02	4
184.3018	39.5963	0.02	4
133.3886	39.0507	0.02	4
189.3610	38.8465	0.02	4
218.9117	38.5067	0.02	4
159.9727	37.6936	0.02	4
173.7084	37.3558	0.02	4
181.6677	37.2883	0.02	4
145.5348	36.4129	0.02	4
162.1573	36.0101	0.02	4
232.2013	35.8760	0.02	4
206.0033	35.4743	0.02	4
206.5087	35.3406	0.02	4
144.3292	34.4066	0.02	4
140.2010	33.8083	0.02	4
183.6105	32.1545	0.02	4
150.2576	31.3647	0.02	4
151.6119	30.8396	0.02	4
211.4162	28.9449	0.02	4
194.7741	28.4246	0.02	4
172.4291	28.2947	0.02	4
137.2367	28.0999	0.02	4
124.1168	27.4516	0.02	4
198.0833	27.4516	0.02	4
198.1554	27.4516	0.02	4
161.4450	27.2573	0.02	4
156.0076	25.8370	0.02	4
120.0473	25.7726	0.02	4
122.5031	25.4507	0.02	4
230.1037	24.6797	0.02	4
230.4898	24.2307	0.02	4
183.2328	24.1025	0.02	4
154.1760	23.9744	0.02	4
171.3255	23.9744	0.02	4
238.0628	23.9104	0.02	4
147.8278	23.7824	0.02	4
165.7532	23.5904	0.02	4
220.1128	23.3985	0.02	4
236.7575	23.2707	0.02	4
145.7862	22.8236	0.02	4
126.7094	19.5820	0.02	4
191.9226	19.3922	0.02	4
178.1018	18.5072	0.02	4
161.9292	16.8684	0.02	4
134.0856	16.5538	0.02	4
226.5461	16.5538	0.02	4
202.5321	16.4910	0.02	4
161.3434	16.3023	0.02	4
124.3794	15.7997	0.02	4
180.8637	15.6114	0.02	4
195.7425	15.4859	0.02	4
203.7561	15.3604	0.02	4
152.5602	15.2976	0.02	4
209.2972	15.2349	0.02	4
183.8711	14.6706	0.02	4
232.4922	13.6062	0.02	4
146.7082	13.3561	0.02	4
233.0979	13.0435	0.02	4
150.0949	12.7311	0.02	4
228.9620	12.0443	0.02	4
144.7570	11.4205	0.02	4
203.1889	10.2367	0.02	4
213.3975	10.0499	0.02	4
193.9075	9.9255	0.02	4
213.1752	9.7388	0.02	4
177.6066	9.4899	0.02	4
172.8873	8.4952	0.02	4
187.7323	8.4952	0.02	4
175.1187	7.8740	0.02	4
138.2881	7.1290	0.02	4
199.3470	6.3225	0.02	4
234.7760	5.9504	0.02	4
164.4414	5.8264	0.02	4
205.1707	5.2685	0.02	4
204.7505	4.5250	0.02	4
168.3570	4.4011	0.02	4
199.6384	3.9675	0.02	4
144.9472	3.5340	0.02	4
221.2365	3.4721	0.02	4
180.5764	3.3482	0.02	4
173.6004	2.9767	0.02	4
150.3933	2.9148	0.02	4
170.5173	2.4815	0.02	4
185.7396	2.4815	0.02	4
197.7396	57.6177	0.025	5
155.7428	56.6042	0.025	5
230.4350	56.6042	0.025	5
227.8417	55.6774	0.025	5
225.5443	53.6961	0.025	5
172.6957	53.6206	0.025	5
172.6521	53.1685	0.025	5
197.9553	53.0182	0.025	5
138.6000	52.1205	0.025	5
239.6867	51.9715	0.025	5
163.4242	50.3445	0.025	5
177.3975	49.9044	0.025	5
226.2799	49.3198	0.025	5
141.7854	48.8104	0.025	5
167.4560	48.5202	0.025	5
218.5555	48.2306	0.025	5
198.2802	47.7252	0.025	5
228.7683	47.6532	0.025	5
197.7732	47.3653	0.025	5
216.2007	47.0064	0.025	5
167.7896	46.8630	0.025	5
236.9478	46.1485	0.025	5
199.2127	44.5884	0.025	5
138.6135	44.0953	0.025	5
176.8458	43.5336	0.025	5
161.7502	42.2072	0.025	5
138.0944	41.8600	0.025	5
203.5380	41.5826	0.025	5
138.7456	41.4441	0.025	5
127.4865	41.3057	0.025	5
228.5908	40.9603	0.025	5
227.9683	40.8223	0.025	5
194.8661	39.9965	0.025	5
121.3724	39.5850	0.025	5
130.5145	39.4480	0.025	5
163.7181	39.4480	0.025	5
221.8790	36.2571	0.025	5
216.7731	36.1225	0.025	5
216.3888	35.8534	0.025	5
169.5161	35.4505	0.025	5
140.9432	34.5800	0.025	5
150.6250	34.3128	0.025	5
205.5143	34.2461	0.025	5
150.5029	34.1794	0.025	5
204.9751	33.7795	0.025	5
180.4170	33.2474	0.025	5
143.7580	31.9225	0.025	5
143.5155	31.3945	0.025	5
128.8608	31.1310	0.025	5
213.6867	30.0795	0.025	5
168.1690	29.6863	0.025	5
196.0035	29.5553	0.025	5
131.2290	28.9669	0.025	5
182.5194	28.8363	0.025	5
195.2688	27.9239	0.025	5
139.1021	27.4688	0.025	5
196.3569	27.1441	0.025	5
120.5199	27.0144	0.025	5
204.6419	27.0144	0.025	5
122.9047	25.5907	0.025	5
128.6968	25.0746	0.025	5
128.3521	24.7525	0.025	5
170.5727	24.4307	0.025	5
141.2962	23.7880	0.025	5
207.9177	23.7238	0.025	5
180.6753	22.8902	0.025	5
145.6162	22.5061	0.025	5
168.2693	22.3143	0.025	5
162.0370	21.8031	0.025	5
162.4031	21.6116	0.025	5
209.9147	21.1651	0.025	5
126.0539	20.7828	0.025	5
239.7737	20.5281	0.025	5
176.2647	20.3372	0.025	5
148.3235	20.2100	0.025	5
208.2067	19.0669	0.025	5
138.3167	18.5598	0.025	5
125.0255	18.3698	0.025	5
138.7477	17.9900	0.025	5
236.4201	17.9267	0.025	5
138.9736	17.8635	0.025	5
152.2185	17.6737	0.025	5
166.7542	17.6105	0.025	5
190.8989	17.5473	0.025	5
122.7334	16.9787	0.025	5
145.1948	16.1586	0.025	5
233.8422	15.4657	0.025	5
146.0994	15.4028	0.025	5
149.8317	15.1510	0.025	5
166.3326	14.5222	0.025	5
202.2790	14.0197	0.025	5
135.6080	13.5803	0.025	5
198.5949	12.8278	0.025	5
215.4012	11.4503	0.025	5
222.5419	11.4503	0.025	5
162.7009	11.3253	0.025	5
142.8149	10.8876	0.025	5
163.0652	10.6376	0.025	5
223.7944	10.2628	0.025	5
194.8010	9.3265	0.025	5
186.6046	9.1394	0.025	5
186.7385	9.0146	0.025	5
214.3829	8.3288	0.025	5
204.6025	7.0831	0.025	5
154.5321	6.9586	0.025	5
237.9708	6.5852	0.025	5
161.0947	6.2119	0.025	5
196.2645	5.0925	0.025	5
125.1043	4.9060	0.025	5
221.3024	4.8439	0.025	5
159.5745	4.7817	0.025	5
167.5208	4.4710	0.025	5
123.6619	4.0982	0.025	5
168.0627	4.0982	0.025	5
217.5038	3.9118	0.025	5
133.0217	3.8497	0.025	5
198.3951	3.4770	0.025	5
145.3511	2.9180	0.025	5
176.2059	2.8559	0.025	5
186.9606	2.7317	0.025	5
207.1210	2.4212	0.025	5
230.3685	2.1729	0.025	5
199.1193	1.8624	0.025	5
231.4562	58.4373	0.03	6
152.1113	58.1135	0.03	6
167.9144	57.9520	0.03	6
219.4272	57.1484	0.03	6
220.8649	54.2279	0.03	6
135.1584	53.7616	0.03	6
155.5393	53.2972	0.03	6
188.1640	52.9886	0.03	6
196.5330	52.9115	0.03	6
136.5259	52.6808	0.03	6
225.0429	52.6039	0.03	6
240.3700	51.6859	0.03	6
192.8076	50.5478	0.03	6
174.2629	50.0954	0.03	6
227.4346	48.8221	0.03	6
153.9703	47.4129	0.03	6
170.8247	46.9709	0.03	6
148.2129	46.8973	0.03	6
120.6781	46.4568	0.03	6
199.0962	46.4568	0.03	6
166.4767	46.3835	0.03	6
137.8130	44.2735	0.03	6
213.5728	43.9847	0.03	6
139.8011	42.7631	0.03	6
239.9696	42.6916	0.03	6
172.5166	42.3342	0.03	6
166.4306	40.7703	0.03	6
129.3544	40.6996	0.03	6
128.8178	40.6288	0.03	6
159.1180	40.6288	0.03	6
228.5643	40.5581	0.03	6
195.6588	40.4168	0.03	6
128.4848	40.1346	0.03	6
227.1074	39.6416	0.03	6
164.6356	38.4499	0.03	6
149.9762	38.3102	0.03	6
217.3733	38.0310	0.03	6
149.5885	37.9613	0.03	6
165.6088	37.6827	0.03	6
136.5860	37.1960	0.03	6
151.8378	37.1960	0.03	6
195.2049	37.0572	0.03	6
218.6963	36.7105	0.03	6
172.6409	35.5362	0.03	6
187.5031	34.9859	0.03	6
173.6171	34.7112	0.03	6
176.3641	33.4112	0.03	6
200.9807	33.2748	0.03	6
199.4190	33.0703	0.03	6
155.9990	32.6619	0.03	6
232.0665	32.5259	0.03	6
223.1580	32.3221	0.03	6
221.3490	31.5762	0.03	6
146.1427	31.3732	0.03	6
132.2389	31.3056	0.03	6
132.6928	31.3056	0.03	6
166.2308	30.1585	0.03	6
146.7500	29.9566	0.03	6
166.1037	29.0164	0.03	6
166.4237	28.7484	0.03	6
195.7973	28.4137	0.03	6
219.9121	28.2800	0.03	6
144.5018	27.4788	0.03	6
187.3622	27.4788	0.03	6
201.4685	27.4121	0.03	6
232.5631	27.1456	0.03	6
238.0833	26.8793	0.03	6
175.4815	26.8128	0.03	6
188.2861	26.6798	0.03	6
174.6211	26.0156	0.03	6
178.8773	25.2866	0.03	6
141.6440	25.2204	0.03	6
223.8646	24.6254	0.03	6
204.6004	24.2292	0.03	6
206.7203	23.7677	0.03	6
139.6447	21.5344	0.03	6
131.2760	21.4035	0.03	6
172.8014	21.4035	0.03	6
167.8561	21.3380	0.03	6
151.5742	20.1617	0.03	6
185.3063	19.2491	0.03	6
136.9171	18.1435	0.03	6
143.3570	17.6242	0.03	6
239.8910	17.4944	0.03	6
137.6593	17.4296	0.03	6
164.2275	17.2999	0.03	6
185.3344	16.9758	0.03	6
162.0843	16.5225	0.03	6
152.0639	15.1002	0.03	6
150.9459	14.1971	0.03	6
122.1055	12.4591	0.03	6
158.3865	12.4591	0.03	6
157.4452	11.8166	0.03	6
175.5941	11.7524	0.03	6
134.2472	11.5597	0.03	6
181.4325	11.2388	0.03	6
224.9747	11.2388	0.03	6
133.1671	10.5332	0.03	6
127.9168	10.3409	0.03	6
162.9327	10.0205	0.03	6
191.2645	9.9564	0.03	6
182.8830	9.8923	0.03	6
197.7670	9.7001	0.03	6
166.0696	9.2519	0.03	6
146.5765	8.9958	0.03	6
165.6625	8.9318	0.03	6
233.2410	8.4840	0.03	6
220.9999	8.2921	0.03	6
189.0176	7.9723	0.03	6
232.3454	7.6527	0.03	6
140.4654	7.1415	0.03	6
231.4117	7.1415	0.03	6
200.1684	6.8221	0.03	6
157.1824	6.0558	0.03	6
146.4319	4.2057	0.03	6
125.0124	3.5681	0.03	6
190.4131	2.9307	0.03	6
207.5793	2.7395	0.03	6
219.5276	2.7395	0.03	6
173.0405	2.2297	0.03	6
209.4950	2.2297	0.03	6
199.1237	1.5289	0.03	6
200.2966	57.0766	0.035	7
184.4534	56.5984	0.035	7
167.4273	56.4394	0.035	7
224.5317	54.0835	0.035	7
146.7597	53.5409	0.035	7
136.6201	53.3863	0.035	7
192.9358	51.3192	0.035	7
189.7006	50.9403	0.035	7
223.1180	50.1857	0.035	7
234.9976	49.5103	0.035	7
173.4152	48.7639	0.035	7
119.8236	48.5408	0.035	7
150.4596	48.0216	0.035	7
224.7513	47.7257	0.035	7
151.4490	47.4305	0.035	7
132.6205	47.3568	0.035	7
164.3435	46.0365	0.035	7
213.3155	45.8177	0.035	7
203.7229	45.5263	0.035	7
237.0005	45.5263	0.035	7
197.9359	45.3808	0.035	7
125.9139	45.0903	0.035	7
163.8094	43.7896	0.035	7
136.3522	43.5020	0.035	7
122.5640	43.1432	0.035	7
205.7923	42.9283	0.035	7
183.3402	41.4317	0.035	7
183.4977	41.2898	0.035	7
192.8203	40.6529	0.035	7
182.2566	40.0886	0.035	7
227.9928	39.3156	0.035	7
160.9081	38.8953	0.035	7
120.3511	38.6855	0.035	7
159.5143	38.2666	0.035	7
160.0232	38.0575	0.035	7
235.2858	37.7790	0.035	7
194.8439	37.0846	0.035	7
169.1991	36.6691	0.035	7
219.5322	36.6691	0.035	7
211.5268	36.3925	0.035	7
147.3701	36.2544	0.035	7
169.7835	36.1853	0.035	7
153.2248	35.7027	0.035	7
173.8596	35.2212	0.035	7
146.3020	35.0152	0.035	7
217.0822	34.9466	0.035	7
209.1931	34.6723	0.035	7
201.1822	32.8974	0.035	7
139.5077	32.0150	0.035	7
159.7594	31.7441	0.035	7
186.1354	31.0683	0.035	7
160.8460	30.8659	0.035	7
202.3712	29.7220	0.035	7
201.7251	29.3194	0.035	7
206.8622	29.1184	0.035	7
166.4357	28.2489	0.035	7
166.7497	27.9819	0.035	7
120.4146	27.8485	0.035	7
183.8878	27.6485	0.035	7
214.6502	27.5152	0.035	7
196.2968	26.5842	0.035	7
211.0903	25.9209	0.035	7
153.5689	24.8626	0.035	7
178.7872	24.7965	0.035	7
154.3482	24.4006	0.035	7
136.2561	23.6103	0.035	7
197.7442	23.2815	0.035	7
186.0782	22.8873	0.035	7
220.8124	22.7560	0.035	7
234.6342	22.6904	0.035	7
138.4410	21.9038	0.035	7
131.5319	21.6420	0.035	7
143.6591	21.2496	0.035	7
173.8498	21.1189	0.035	7
119.6980	20.1400	0.035	7
229.5064	20.0096	0.035	7
152.9680	19.0333	0.035	7
125.0273	18.2539	0.035	7
150.8055	16.8283	0.035	7
221.5284	16.6342	0.035	7
225.6099	16.4402	0.035	7
220.4384	15.7295	0.035	7
172.2619	14.3752	0.035	7
140.4761	13.9889	0.035	7
158.9484	13.6671	0.035	7
140.1221	13.4099	0.035	7
160.8948	13.4099	0.035	7
196.6548	11.9966	0.035	7
148.4838	11.4193	0.035	7
121.3241	11.0988	0.035	7
209.3889	11.0988	0.035	7
164.1076	10.4581	0.035	7
210.1043	10.4581	0.035	7
210.4780	9.8180	0.035	7
210.6726	9.6260	0.035	7
221.3256	9.3062	0.035	7
182.0604	8.5391	0.035	7
164.1054	8.0918	0.035	7
178.7825	7.9641	0.035	7
193.5197	7.7087	0.035	7
226.7967	7.4533	0.035	7
179.9428	7.3256	0.035	7
232.3414	5.6671	0.035	7
157.2955	5.0934	0.035	7
229.3865	5.0934	0.035	7
171.5802	4.7748	0.035	7
140.2048	3.6283	0.035	7
163.5126	2.8006	0.035	7
130.4528	2.6096	0.035	7
212.6631	2.4823	0.035	7
196.3705	2.4187	0.035	7
146.6150	2.2914	0.035	7
201.5277	2.2277	0.035	7
159.7877	1.7185	0.035	7
156.8709	1.5276	0.035	7
155.0336	58.2789	0.04	8
186.4854	57.8745	0.04	8
158.9506	57.0706	0.04	8
144.6280	56.9905	0.04	8
206.0200	56.9905	0.04	8
168.6621	56.9106	0.04	8
138.3447	55.7182	0.04	8
129.1406	55.6392	0.04	8
222.0768	55.1663	0.04	8
149.6516	54.5390	0.04	8
123.4816	54.4608	0.04	8
216.5159	54.0708	0.04	8
189.0561	50.6178	0.04	8
160.5213	50.3910	0.04	8
188.1678	49.9386	0.04	8
157.0722	49.2629	0.04	8
140.5240	49.1133	0.04	8
122.5733	47.0347	0.04	8
172.7601	46.8138	0.04	8
173.5858	46.1531	0.04	8
179.0683	45.8604	0.04	8
211.9014	45.5683	0.04	8
223.9598	44.4778	0.04	8
137.0896	43.6829	0.04	8
221.3971	42.2476	0.04	8
143.5696	42.1761	0.04	8
236.5969	41.8193	0.04	8
156.8215	40.5410	0.04	8
233.4368	40.1170	0.04	8
195.6875	40.0464	0.04	8
216.0312	39.5531	0.04	8
121.6704	39.2015	0.04	8
132.6832	39.2015	0.04	8
215.8732	39.0611	0.04	8
180.2453	38.9207	0.04	8
131.9867	38.0111	0.04	8
194.5387	38.0111	0.04	8
175.9832	37.8715	0.04	8
150.3975	37.6623	0.04	8
133.6054	36.6891	0.04	8
190.6747	35.3756	0.04	8
148.7907	35.3067	0.04	8
219.5667	35.3067	0.04	8
170.4802	33.4544	0.04	8
139.0663	33.2495	0.04	8
170.7314	33.1130	0.04	8
201.5206	33.1130	0.04	8
121.4969	33.0448	0.04	8
141.4189	32.4318	0.04	8
205.8618	31.8882	0.04	8
134.7911	31.3458	0.04	8
206.6852	31.0075	0.04	8
186.0887	29.3894	0.04	8
186.3035	29.1878	0.04	8
177.8618	28.8522	0.04	8
142.9740	26.7138	0.04	8
217.1109	26.7138	0.04	8
120.6792	25.8495	0.04	8
167.4197	24.8551	0.04	8
159.7000	24.6566	0.04	8
137.6154	24.5244	0.04	8
181.4483	24.2600	0.04	8
129.1852	23.8638	0.04	8
129.0573	23.7978	0.04	8
156.5105	21.4306	0.04	8
228.8694	20.8411	0.04	8
157.2794	20.0565	0.04	8
123.0984	19.9912	0.04	8
173.0728	19.8606	0.04	8
178.6650	19.2082	0.04	8
235.7838	19.0127	0.04	8
235.8978	18.8824	0.04	8
223.8023	18.1664	0.04	8
222.8665	17.0621	0.04	8
121.8448	16.8675	0.04	8
154.3934	15.0547	0.04	8
206.3090	14.9900	0.04	8
124.5870	14.7316	0.04	8
146.8856	14.2150	0.04	8
210.8404	13.4410	0.04	8
181.2509	12.7968	0.04	8
148.8990	12.4749	0.04	8
148.9823	12.2818	0.04	8
180.6966	12.2818	0.04	8
170.4735	12.1531	0.04	8
188.4168	11.3173	0.04	8
167.8075	11.1246	0.04	8
167.5385	10.8676	0.04	8
147.6579	10.4824	0.04	8
225.7684	10.4182	0.04	8
174.0223	10.0974	0.04	8
189.8938	9.2637	0.04	8
123.9194	8.3667	0.04	8
121.3488	7.9826	0.04	8
125.2514	7.1507	0.04	8
234.5953	6.7669	0.04	8
135.4790	6.6390	0.04	8
200.3847	6.5112	0.04	8
169.0735	5.7441	0.04	8
231.7141	5.4886	0.04	8
190.4552	5.3608	0.04	8
155.9676	5.2330	0.04	8
194.1397	5.1053	0.04	8
167.6632	3.4453	0.04	8
196.0964	3.2538	0.04	8
178.0965	3.1900	0.04	8
150.0079	3.1262	0.04	8
159.0161	2.2967	0.04	8
210.3296	2.1691	0.04	8
220.1403	2.0415	0.04	8
134.3546	1.8502	0.04	8
205.8259	1.4674	0.04	8
149.8274	1.1485	0.04	8
158.0689	56.1774	0.045	9
138.8312	56.0993	0.045	9
129.3729	54.7031	0.045	9
173.5969	53.9350	0.045	9
237.1765	53.6292	0.045	9
154.7705	53.2481	0.045	9
218.4329	53.0960	0.045	9
220.4846	52.6409	0.045	9
147.9731	52.2630	0.045	9
186.6039	51.3608	0.045	9
233.4183	51.2111	0.045	9
205.8046	50.8375	0.045	9
193.3492	50.0937	0.045	9
199.1985	48.5453	0.045	9
127.3491	45.9305	0.045	9
191.1633	45.9305	0.045	9
159.6741	45.2124	0.045	9
187.4638	45.2124	0.045	9
173.1712	44.3551	0.045	9
198.4981	44.1416	0.045	9
226.0167	42.5133	0.045	9
170.8221	41.9507	0.045	9
143.6308	41.7403	0.045	9
167.9502	41.5300	0.045	9
183.8329	40.4826	0.045	9
140.4605	40.2739	0.045	9
147.2200	39.3029	0.045	9
201.4444	39.3029	0.045	9
201.8522	38.9573	0.045	9
154.0747	38.4057	0.045	9
138.4786	37.6499	0.045	9
156.1476	36.6920	0.045	9
228.4245	36.2148	0.045	9
217.6435	36.0106	0.045	9
235.2232	35.5349	0.045	9
237.8672	33.5080	0.045	9
222.9490	32.9034	0.045	9
190.2513	32.2335	0.045	9
166.8944	32.1666	0.045	9
209.9041	32.0329	0.045	9
150.0199	31.9661	0.045	9
200.1194	31.5655	0.045	9
191.1643	31.4321	0.045	9
197.0333	30.6332	0.045	9
182.7940	29.8369	0.045	9
170.5800	29.4396	0.045	9
222.0051	29.2412	0.045	9
155.2997	28.8448	0.045	9
136.9025	28.5808	0.045	9
231.6224	28.5149	0.045	9
203.8602	28.1853	0.045	9
180.6482	27.7904	0.045	9
138.1508	27.6589	0.045	9
193.2025	27.1991	0.045	9
223.7589	27.1991	0.045	9
156.8648	27.0023	0.045	9
168.8356	26.8711	0.045	9
231.7383	26.6745	0.045	9
146.5070	26.1507	0.045	9
180.2084	25.3016	0.045	9
203.3204	25.1059	0.045	9
143.8292	25.0408	0.045	9
170.8145	24.9104	0.045	9
237.7790	23.6099	0.045	9
152.4055	23.1559	0.045	9
225.9247	23.1559	0.045	9
180.5614	23.0263	0.045	9
161.5530	21.7328	0.045	9
161.0486	20.0578	0.045	9
173.8949	19.8007	0.045	9
177.4022	19.5438	0.045	9
182.6514	19.2870	0.045	9
176.3632	18.7098	0.045	9
137.1522	18.5817	0.045	9
217.7057	18.3255	0.045	9
185.8987	17.3660	0.045	9
207.0775	17.2382	0.045	9
143.5489	17.1105	0.045	9
135.3351	16.7912	0.045	9
121.7916	16.5360	0.045	9
224.0510	16.4722	0.045	9
224.2320	16.2809	0.045	9
237.5937	16.2809	0.045	9
144.6230	16.2171	0.045	9
236.6262	15.8985	0.045	9
209.9921	15.7710	0.045	9
227.3988	15.1981	0.045	9
154.1311	15.0072	0.045	9
166.5761	14.1809	0.045	9
125.6554	14.0539	0.045	9
205.0732	13.6729	0.045	9
146.2145	13.3557	0.045	9
204.6170	12.9752	0.045	9
166.5538	12.8484	0.045	9
144.9995	11.4554	0.045	9
145.3787	10.9496	0.045	9
191.9896	10.1282	0.045	9
128.0357	9.6232	0.045	9
127.7870	9.3707	0.045	9
137.8748	9.1815	0.045	9
194.6889	9.1184	0.045	9
227.1895	8.8661	0.045	9
227.3786	8.6770	0.045	9
160.9634	8.4878	0.045	9
208.9371	8.2987	0.045	9
238.9002	8.2987	0.045	9
156.8314	8.1097	0.045	9
200.1646	8.0467	0.045	9
122.0141	7.7947	0.045	9
158.0065	7.4798	0.045	9
155.2533	6.5984	0.045	9
167.4538	6.5984	0.045	9
198.0161	6.2838	0.045	9
232.1569	6.1580	0.045	9
231.7284	5.7806	0.045	9
232.7988	4.1461	0.045	9
213.4507	3.7064	0.045	9
196.4164	3.5807	0.045	9
190.2612	2.7642	0.045	9
189.9228	2.6386	0.045	9
143.4511	2.5758	0.045	9
179.3179	2.4502	0.045	9
143.7265	2.2619	0.045	9
170.6733	2.2619	0.045	9
181.4114	1.9479	0.045	9
213.0128	1.8224	0.045	9
223.9518	1.8224	0.045	9
154.8000	57.9102	0.05	10
211.7606	57.2816	0.05	10
205.3263	57.0468	0.05	10
200.5124	56.7347	0.05	10
185.1449	56.3458	0.05	10
235.5784	54.8045	0.05	10
179.1335	54.7280	0.05	10
206.9202	52.4568	0.05	10
193.9578	52.3819	0.05	10
145.1583	51.3374	0.05	10
149.9865	50.7445	0.05	10
176.4537	50.7445	0.05	10
213.1495	48.5450	0.05	10
225.5919	48.0369	0.05	10
120.9300	47.6028	0.05	10
128.9703	47.4585	0.05	10
196.0560	47.0262	0.05	10
128.6677	46.9543	0.05	10
131.8585	46.5235	0.05	10
158.3007	45.3098	0.05	10
165.5058	44.9547	0.05	10
198.6763	44.6712	0.05	10
236.0469	42.5609	0.05	10
181.3098	41.5157	0.05	10
182.4390	40.8225	0.05	10
228.3225	40.2008	0.05	10
188.6625	39.3753	0.05	10
226.8324	39.1695	0.05	10
197.5007	38.9639	0.05	10
155.0438	38.3485	0.05	10
198.3970	38.0756	0.05	10
169.7745	37.1234	0.05	10
144.4997	35.8384	0.05	10
169.3405	35.7710	0.05	10
147.1800	35.0980	0.05	10
130.2534	35.0308	0.05	10
228.4606	34.8965	0.05	10
130.6635	34.7623	0.05	10
209.6165	33.5579	0.05	10
234.6648	33.4245	0.05	10
140.8887	32.7585	0.05	10
181.3697	32.6920	0.05	10
236.2793	31.8956	0.05	10
197.1564	31.7631	0.05	10
165.3400	30.1787	0.05	10
163.2870	29.7841	0.05	10
151.2807	29.3245	0.05	10
126.4193	29.1278	0.05	10
216.8773	28.8657	0.05	10
187.4147	28.7347	0.05	10
206.3539	28.4730	0.05	10
172.1599	28.3423	0.05	10
221.5555	28.2769	0.05	10
169.2616	27.3634	0.05	10
223.1237	26.5178	0.05	10
239.7955	26.4528	0.05	10
145.4427	26.1283	0.05	10
177.2281	25.8689	0.05	10
147.8170	25.4802	0.05	10
177.7442	25.4155	0.05	10
235.1567	25.0920	0.05	10
159.3034	24.9627	0.05	10
207.3525	24.7689	0.05	10
213.0009	24.7043	0.05	10
182.7506	24.2525	0.05	10
226.7925	24.1235	0.05	10
233.5705	23.4794	0.05	10
161.2829	23.1578	0.05	10
141.0275	22.9007	0.05	10
205.1458	22.7080	0.05	10
176.3377	22.6438	0.05	10
128.4058	20.1484	0.05	10
234.0593	19.7021	0.05	10
208.0026	19.5110	0.05	10
163.2317	19.0018	0.05	10
215.0161	18.9382	0.05	10
169.5412	18.6839	0.05	10
213.1078	18.3662	0.05	10
227.0142	18.3662	0.05	10
188.8087	17.8583	0.05	10
196.2672	17.6680	0.05	10
226.0541	17.6680	0.05	10
165.3632	17.4778	0.05	10
236.2743	17.3510	0.05	10
139.5094	17.1609	0.05	10
218.1018	17.1609	0.05	10
178.8771	16.8442	0.05	10
187.9980	16.5277	0.05	10
219.0361	16.2114	0.05	10
146.4579	15.9586	0.05	10
159.6387	15.7058	0.05	10
209.0816	15.3900	0.05	10
137.7153	15.3269	0.05	10
135.2940	15.1375	0.05	10
169.0721	13.8767	0.05	10
183.0634	13.8767	0.05	10
134.2583	13.3731	0.05	10
235.4157	12.4300	0.05	10
150.1173	12.3043	0.05	10
158.6331	11.1118	0.05	10
222.1824	11.1118	0.05	10
171.2231	10.8610	0.05	10
153.3362	10.6102	0.05	10
224.2801	10.6102	0.05	10
188.2890	10.5475	0.05	10
128.6121	9.8585	0.05	10
141.7914	9.7958	0.05	10
125.7017	9.2951	0.05	10
